#Wave		#Intensity
964.781250	30838.527344
964.250000	30447.927734
963.718750	30528.675781
963.187500	30694.093750
962.656250	30478.429688
962.123047	30709.666016
961.591797	30893.812500
961.060547	30697.023438
960.529297	30326.322266
959.998047	30858.339844
959.464844	30652.236328
958.933594	30253.492188
958.402344	30846.410156
957.869141	30579.310547
957.337891	30627.056641
956.804688	30848.599609
956.273438	30788.273438
955.740234	30657.521484
955.208984	30451.671875
954.675781	30743.558594
954.142578	30692.675781
953.611328	30773.234375
953.078125	30989.882813
952.544922	30892.064453
952.011719	30906.884766
951.478516	31198.503906
950.947266	30659.757813
950.414063	31096.736328
949.880859	31130.289063
949.347656	30901.246094
948.814453	30958.261719
948.281250	31184.031250
947.748047	30781.644531
947.214844	30871.466797
946.679688	31040.933594
946.146484	30882.371094
945.613281	30911.248047
945.080078	31150.916016
944.544922	31437.363281
944.011719	31063.414063
943.478516	31134.404297
942.943359	31111.740234
942.410156	30995.455078
941.875000	31206.857422
941.341797	31319.923828
940.806641	31666.945313
940.273438	31316.705078
939.738281	31411.007813
939.205078	31477.220703
938.669922	31501.322266
938.134766	31483.332031
937.601563	31582.248047
937.066406	31634.388672
936.531250	31387.322266
935.996094	31411.431641
935.460938	31739.328125
934.925781	31375.519531
934.390625	31801.464844
933.855469	31764.781250
933.320313	31905.623047
932.785156	32037.087891
932.250000	32163.851563
931.714844	31753.578125
931.179688	31824.320313
930.644531	31955.738281
930.109375	32222.492188
929.572266	32073.792969
929.037109	32475.806641
928.501953	31879.164063
927.966797	32248.445313
927.429688	32403.048828
926.894531	32403.687500
926.357422	32814.746094
925.822266	32600.830078
925.285156	32629.427734
924.750000	32886.460938
924.212891	32574.728516
923.675781	33069.417969
923.140625	32906.875000
922.603516	33322.187500
922.066406	33052.496094
921.531250	33388.496094
920.994141	33514.800781
920.457031	33822.718750
919.919922	33925.656250
919.382813	33656.066406
918.845703	33963.855469
918.308594	34485.714844
917.771484	33969.464844
917.234375	34398.113281
916.697266	34440.421875
916.160156	34459.457031
915.623047	34943.722656
915.085938	34669.632813
914.548828	34656.082031
914.009766	34758.796875
913.472656	35024.246094
912.935547	35085.050781
912.398438	35731.605469
911.859375	35192.675781
911.322266	35430.062500
910.783203	34998.191406
910.246094	35523.636719
909.707031	35723.726563
909.169922	36174.632813
908.630859	35979.781250
908.093750	35989.332031
907.554688	35697.031250
907.015625	36166.300781
906.478516	35846.199219
905.939453	35985.746094
905.400391	36320.207031
904.861328	36227.617188
904.324219	36380.996094
903.785156	36585.375000
903.246094	36901.050781
902.707031	36808.445313
902.167969	37253.890625
901.628906	36952.570313
901.089844	36980.558594
900.550781	37532.468750
900.011719	36846.445313
899.472656	37222.097656
898.931641	37430.804688
898.392578	37069.449219
897.853516	36847.191406
897.314453	37658.179688
896.773438	36958.753906
896.234375	37700.058594
895.695313	38103.089844
895.154297	37635.414063
894.615234	37931.859375
894.074219	38283.792969
893.535156	37529.257813
892.994141	37483.089844
892.455078	38108.015625
891.914063	37821.164063
891.373047	37636.171875
890.833984	38288.621094
890.292969	37779.808594
889.751953	37775.285156
889.212891	37978.878906
888.671875	37941.964844
888.130859	37586.027344
887.589844	38598.625000
887.048828	38099.398438
886.507813	37623.398438
885.966797	38792.765625
885.425781	38649.511719
884.884766	37831.714844
884.343750	38206.031250
883.802734	38778.890625
883.261719	38487.910156
882.720703	38534.128906
882.179688	38192.457031
881.636719	38247.937500
881.095703	38658.878906
880.554688	38705.062500
880.011719	37985.074219
879.470703	38377.445313
878.929688	38257.535156
878.386719	38252.996094
877.845703	38585.230469
877.302734	38409.988281
876.761719	38008.792969
876.218750	38460.843750
875.677734	38078.183594
875.134766	38069.070313
874.591797	38244.359375
874.050781	38571.718750
873.507813	37802.085938
872.964844	37816.058594
872.421875	38171.003906
871.880859	37493.839844
871.337891	37857.957031
870.794922	37793.613281
870.251953	38217.484375
869.708984	37674.187500
869.166016	37729.613281
868.623047	37909.332031
868.080078	37080.855469
867.537109	37670.273438
866.994141	37279.246094
866.451172	37307.082031
865.906250	37624.789063
865.363281	37486.953125
864.820313	36921.328125
864.277344	37137.781250
863.732422	37312.796875
863.189453	37340.613281
862.646484	37373.023438
862.101563	37387.039063
861.558594	37240.156250
861.013672	37162.257813
860.470703	36969.480469
859.925781	36611.316406
859.382813	37080.304688
858.837891	37094.351563
858.292969	36653.613281
857.750000	36773.351563
857.205078	36911.437500
856.660156	36613.234375
856.117188	36774.265625
855.572266	36646.019531
855.027344	36425.996094
854.482422	36655.843750
853.937500	36876.464844
853.392578	36477.523438
852.847656	36872.472656
852.302734	36588.328125
851.757813	36272.136719
851.212891	36868.792969
850.667969	36965.410156
850.123047	36704.320313
849.578125	36548.746094
849.033203	36209.828125
848.486328	36526.519531
847.941406	36884.390625
847.396484	37439.253906
846.849609	36811.691406
846.304688	36550.835938
845.759766	37242.992188
845.212891	36936.339844
844.667969	36790.074219
844.121094	36785.824219
843.576172	37381.468750
843.029297	37317.625000
842.484375	37620.062500
841.937500	37432.609375
841.392578	37725.812500
840.845703	38142.519531
840.298828	37241.183594
839.751953	37246.042969
839.207031	38303.187500
838.660156	37658.324219
838.113281	37827.804688
837.566406	37718.257813
837.019531	37663.613281
836.472656	37453.519531
835.925781	38203.589844
835.378906	38185.484375
834.832031	37495.453125
834.285156	38126.433594
833.738281	37870.710938
833.191406	38286.746094
832.644531	38085.890625
832.097656	37496.777344
831.548828	37542.722656
831.001953	38205.238281
830.455078	37876.621094
829.908203	38127.988281
829.359375	37703.578125
828.812500	37534.914063
828.263672	38256.398438
827.716797	37686.066406
827.167969	37549.410156
826.621094	37180.070313
826.072266	37974.269531
825.525391	37317.554688
824.976563	37130.832031
824.429688	37641.984375
823.880859	36844.160156
823.332031	37259.472656
822.783203	37360.089844
822.236328	36690.222656
821.687500	37570.371094
821.138672	36827.707031
820.589844	37055.937500
820.041016	36819.316406
819.492188	37257.085938
818.943359	37138.949219
818.394531	37125.609375
817.845703	37094.054688
817.296875	36944.101563
816.748047	36297.820313
816.199219	37072.292969
815.650391	37022.554688
815.101563	36922.750000
814.552734	36986.832031
814.001953	36859.750000
813.453125	36587.078125
812.904297	36696.675781
812.353516	36678.863281
811.804688	36683.800781
811.255859	37011.687500
810.705078	36425.339844
810.156250	36948.722656
809.605469	36644.433594
809.056641	36549.351563
808.505859	37149.828125
807.957031	36645.621094
807.406250	36627.839844
806.855469	37000.882813
806.306641	36837.660156
805.755859	36220.128906
805.205078	36388.664063
804.654297	36629.839844
804.103516	36144.261719
803.554688	36617.019531
803.003906	36803.601563
802.453125	36536.105469
801.902344	36822.527344
801.351563	37390.328125
800.800781	36691.671875
800.250000	36741.992188
799.699219	37105.406250
799.148438	36706.480469
798.595703	36911.035156
798.044922	37106.468750
797.494141	36984.359375
796.943359	36943.910156
796.392578	37728.789063
795.839844	37602.117188
795.289063	37312.265625
794.738281	37376.062500
794.185547	37090.832031
793.634766	37766.484375
793.082031	37929.906250
792.531250	37545.027344
791.978516	37672.195313
791.427734	37328.203125
790.875000	37681.847656
790.324219	37908.601563
789.771484	37958.687500
789.218750	37660.097656
788.667969	38434.613281
788.115234	38946.386719
787.562500	38072.917969
787.009766	38181.796875
786.457031	38829.195313
785.904297	38186.808594
785.353516	38426.855469
784.800781	39236.871094
784.248047	38766.554688
783.695313	38992.882813
783.142578	39666.890625
782.589844	39065.546875
782.037109	39088.300781
781.482422	39454.648438
780.929688	40037.894531
780.376953	39735.097656
779.824219	39988.261719
779.271484	40105.800781
778.716797	40169.093750
778.164063	40065.207031
777.611328	39997.484375
777.056641	40512.460938
776.503906	40087.906250
775.949219	40693.082031
775.396484	40589.195313
774.841797	40896.195313
774.289063	41320.496094
773.734375	41135.328125
773.181641	41622.699219
772.626953	40918.554688
772.072266	42258.687500
771.519531	42105.082031
770.964844	41969.554688
770.410156	41987.429688
769.855469	42122.570313
769.302734	42704.160156
768.748047	42893.304688
768.193359	43163.570313
767.638672	43767.394531
767.083984	43036.750000
766.529297	43847.792969
765.974609	43067.726563
765.419922	44157.980469
764.865234	44450.457031
764.310547	43575.972656
763.755859	44165.765625
763.201172	44773.449219
762.644531	43885.707031
762.089844	45402.968750
761.535156	44893.597656
760.980469	45257.800781
760.423828	45689.449219
759.869141	45652.863281
759.312500	45715.304688
758.757813	46479.789063
758.203125	47262.101563
757.646484	47126.371094
757.091797	47440.554688
756.535156	48222.503906
755.978516	47794.351563
755.423828	48580.582031
754.867188	48777.550781
754.312500	48430.410156
753.755859	49463.585938
753.199219	49664.886719
752.642578	49111.000000
752.087891	50476.339844
751.531250	50825.757813
750.974609	50393.253906
750.417969	51439.000000
749.861328	51482.714844
749.304688	50937.984375
748.748047	51897.988281
748.191406	52534.433594
747.634766	52290.625000
747.078125	53232.199219
746.521484	53531.582031
745.964844	53117.164063
745.406250	54332.128906
744.849609	54873.640625
744.292969	54930.390625
743.736328	55364.027344
743.177734	56026.375000
742.621094	55060.187500
742.064453	56435.609375
741.505859	56335.179688
740.949219	57602.527344
740.390625	58125.261719
739.833984	58365.421875
739.275391	58457.593750
738.718750	59074.191406
738.160156	59251.421875
737.603516	60177.015625
737.044922	61035.191406
736.486328	60342.933594
735.929688	61165.058594
735.371094	61126.945313
734.812500	62208.585938
734.253906	62833.179688
733.695313	62799.371094
733.138672	63096.906250
732.580078	64397.222656
732.021484	65294.367188
731.462891	64763.464844
730.904297	65212.816406
730.345703	66704.750000
729.787109	66675.015625
729.228516	67960.656250
728.667969	66315.835938
728.109375	66585.851563
727.550781	69342.546875
726.992188	68816.132813
726.433594	69184.156250
725.873047	71255.578125
725.314453	71399.718750
724.755859	70922.484375
724.195313	72550.539063
723.636719	72783.867188
723.076172	73656.156250
722.517578	74197.617188
721.957031	75413.570313
721.398438	75088.085938
720.837891	76544.875000
720.279297	76768.679688
719.718750	76728.953125
719.158203	78551.218750
718.599609	79605.156250
718.039063	79359.781250
717.478516	80819.593750
716.917969	81167.750000
716.359375	81292.687500
715.798828	84585.773438
715.238281	82711.460938
714.677734	83674.898438
714.117188	87399.320313
713.556641	84740.312500
712.996094	86813.687500
712.435547	89381.585938
711.875000	88867.906250
711.314453	89789.906250
710.753906	91647.835938
710.193359	91722.437500
709.630859	92438.796875
709.070313	94130.945313
708.509766	95305.835938
707.949219	93918.640625
707.386719	96933.156250
706.826172	96681.953125
706.263672	98448.406250
705.703125	101122.968750
705.142578	99989.710938
704.580078	102160.390625
704.019531	103520.335938
703.457031	102801.171875
702.894531	105402.562500
702.333984	107353.617188
701.771484	106313.867188
701.210938	108611.445313
700.648438	109751.789063
700.085938	107479.882813
699.523438	111947.195313
698.960938	112699.859375
698.400391	110099.304688
697.837891	115222.937500
697.275391	115023.531250
696.712891	114397.398438
696.150391	117771.960938
695.587891	119461.281250
695.025391	116617.265625
694.462891	122101.179688
693.900391	119701.804688
693.337891	120363.921875
692.775391	123420.203125
692.210938	123930.750000
691.648438	122633.632813
691.085938	127646.992188
690.523438	126918.093750
689.958984	126020.640625
689.396484	129149.742188
688.833984	129441.820313
688.269531	129818.156250
687.707031	133114.437500
687.142578	129873.929688
686.580078	133568.796875
686.015625	135612.546875
685.453125	135615.390625
684.888672	135808.937500
684.326172	140725.531250
683.761719	138559.421875
683.197266	142601.156250
682.632813	145218.890625
682.070313	141896.015625
681.505859	144034.562500
680.941406	146992.531250
680.376953	146369.281250
679.812500	150296.703125
679.248047	153828.968750
678.685547	152022.375000
678.121094	154441.859375
677.556641	159385.343750
676.992188	157649.578125
676.425781	159483.156250
675.861328	163056.343750
675.296875	162542.593750
674.732422	166557.312500
674.167969	167428.640625
673.603516	169999.203125
673.037109	171126.609375
672.472656	177660.625000
671.908203	176623.562500
671.341797	181279.921875
670.777344	185130.234375
670.212891	184716.281250
669.646484	189980.468750
669.082031	191485.062500
668.515625	195668.578125
667.951172	202742.296875
667.384766	204616.296875
666.818359	205530.781250
666.253906	213922.437500
665.687500	216704.843750
665.121094	218435.078125
664.556641	225148.203125
663.990234	231038.234375
663.423828	232841.390625
662.857422	241723.546875
662.291016	245022.109375
661.724609	250567.359375
661.160156	261404.828125
660.593750	262890.250000
660.027344	270965.281250
659.460938	282834.062500
658.894531	285031.500000
658.326172	293600.031250
657.759766	305585.968750
657.193359	312531.312500
656.626953	322774.593750
656.060547	331785.062500
655.492188	338306.281250
654.925781	355669.125000
654.359375	366405.750000
653.792969	375605.812500
653.224609	393077.843750
652.658203	408571.406250
652.089844	419866.000000
651.523438	439993.375000
650.955078	454353.093750
650.388672	468617.125000
649.820313	490058.437500
649.253906	505187.531250
648.685547	526448.312500
648.117188	552478.062500
647.550781	569294.937500
646.982422	593165.687500
646.414063	626738.187500
645.845703	644338.000000
645.279297	671951.312500
644.710938	702634.687500
644.142578	724594.250000
643.574219	763791.937500
643.005859	790429.625000
642.437500	817998.437500
641.869141	861888.000000
641.300781	891118.437500
640.732422	909586.250000
640.164063	960886.437500
639.595703	979786.562500
639.025391	1001856.437500
638.457031	1046663.687500
637.888672	1058599.500000
637.320313	1082292.500000
636.750000	1114781.500000
636.181641	1112273.125000
635.613281	1128743.250000
635.042969	1161321.750000
634.474609	1141622.625000
633.904297	1150429.500000
633.335938	1160033.500000
632.765625	1133509.125000
632.197266	1130539.375000
631.626953	1128496.625000
631.058594	1090361.750000
630.488281	1087709.250000
629.917969	1065648.250000
629.349609	1015194.500000
628.779297	1011888.687500
628.208984	978950.875000
627.638672	932883.312500
627.068359	916596.812500
626.498047	884123.187500
625.929688	835757.250000
625.359375	826063.375000
624.789063	780713.062500
624.218750	745011.812500
623.648438	731815.937500
623.076172	688393.000000
622.505859	653896.812500
621.935547	645832.875000
621.365234	604689.937500
620.794922	577621.812500
620.224609	564050.062500
619.652344	528658.125000
619.082031	510168.375000
618.511719	497641.906250
617.939453	465902.781250
617.369141	451068.218750
616.798828	440863.500000
616.226563	410567.906250
615.656250	399153.343750
615.083984	391648.750000
614.511719	364571.218750
613.941406	359368.812500
613.369141	348607.906250
612.798828	328682.031250
612.226563	324517.375000
611.654297	313938.781250
611.082031	296589.843750
610.511719	296146.125000
609.939453	283755.656250
609.367188	270249.031250
608.794922	270223.531250
608.222656	259107.281250
607.650391	245909.312500
607.078125	246008.828125
606.505859	235361.984375
605.933594	228220.593750
605.361328	225919.906250
604.789063	215077.937500
604.216797	212015.062500
603.644531	209633.968750
603.070313	199949.875000
602.498047	194873.031250
601.925781	195833.500000
601.353516	188179.062500
600.779297	185243.359375
600.207031	183529.968750
599.634766	176555.625000
599.060547	175528.437500
598.488281	172285.734375
597.914063	163396.015625
597.341797	164978.296875
596.767578	161772.718750
596.193359	155359.078125
595.621094	158811.828125
595.046875	154291.640625
594.474609	150687.671875
593.900391	151607.906250
593.326172	147743.593750
592.751953	144773.296875
592.177734	145406.343750
591.605469	141652.890625
591.031250	139642.421875
590.457031	140045.015625
589.882813	136528.531250
589.308594	135951.734375
588.734375	135988.906250
588.160156	131094.140625
587.585938	132877.171875
587.011719	133819.875000
586.435547	131289.859375
585.861328	131932.296875
585.287109	131317.281250
584.712891	130950.351563
584.136719	130553.046875
583.562500	128759.773438
582.988281	127484.375000
582.412109	129122.515625
581.837891	128103.867188
581.263672	126468.148438
580.687500	126727.937500
580.113281	124858.031250
579.537109	124474.773438
578.960938	124226.304688
578.386719	121149.437500
577.810547	118868.257813
577.236328	118828.984375
576.660156	116387.859375
576.083984	113682.367188
575.507813	113995.406250
574.933594	110908.687500
574.357422	109550.523438
573.781250	109026.109375
573.205078	106991.343750
572.628906	103516.171875
572.052734	102280.929688
571.476563	99553.351563
570.900391	97199.492188
570.324219	95418.765625
569.748047	93356.500000
569.171875	91238.304688
568.595703	89549.898438
568.017578	88664.039063
567.441406	87258.101563
566.865234	84790.375000
566.289063	83649.593750
565.710938	82387.703125
565.134766	79578.984375
564.556641	79682.773438
563.980469	77559.539063
563.404297	75250.492188
562.826172	74631.328125
562.250000	73912.679688
561.671875	71933.945313
561.093750	70912.632813
560.517578	70476.078125
559.939453	69065.515625
559.361328	69027.507813
558.785156	66868.617188
558.207031	67164.109375
557.628906	66135.343750
557.050781	64661.148438
556.472656	63645.871094
555.896484	62924.988281
555.318359	62048.546875
554.740234	61885.917969
554.162109	60092.992188
553.583984	59450.652344
553.005859	59517.507813
552.427734	58283.117188
551.847656	57809.765625
551.269531	57064.230469
550.691406	56612.726563
550.113281	56658.250000
549.535156	56600.066406
548.955078	54805.203125
548.376953	55235.355469
547.798828	53561.980469
547.218750	53469.613281
546.640625	53606.128906
546.060547	52563.878906
545.482422	51906.089844
544.902344	51200.968750
544.324219	51013.949219
543.744141	49821.398438
543.166016	50583.941406
542.585938	50802.644531
542.005859	49355.964844
541.427734	49488.480469
540.847656	49250.011719
540.267578	48446.609375
539.687500	48937.105469
539.107422	48047.675781
538.527344	47343.835938
537.949219	48131.742188
537.369141	47268.558594
536.789063	47000.347656
536.208984	46421.914063
535.628906	45865.148438
535.046875	47583.414063
534.466797	45592.062500
533.886719	45664.480469
533.306641	45586.132813
532.726563	44779.988281
532.146484	45046.246094
531.564453	45424.386719
530.984375	44183.707031
530.404297	44230.398438
529.822266	44733.320313
529.242188	44375.390625
528.660156	43875.535156
528.080078	44266.453125
527.498047	43693.578125
526.917969	42901.441406
526.335938	43610.628906
525.755859	42934.800781
525.173828	43394.402344
524.591797	43153.031250
524.009766	42486.074219
523.429688	42941.269531
522.847656	42902.050781
522.265625	42050.535156
521.683594	42011.421875
521.101563	42251.613281
520.519531	41525.054688
519.937500	42272.167969
519.355469	41837.855469
518.773438	41459.480469
518.191406	42098.980469
517.609375	41110.906250
517.027344	40560.992188
516.445313	40865.519531
515.863281	40890.957031
515.281250	40684.617188
514.697266	40933.230469
514.115234	39877.292969
513.533203	40421.992188
512.949219	41159.625000
512.367188	40481.500000
511.785156	40687.101563
511.201172	40240.769531
510.619141	39725.929688
510.035156	40283.136719
509.453125	40192.839844
508.869141	40021.113281
508.285156	40582.378906
507.703125	40234.929688
507.119141	40118.964844
506.535156	40255.828125
505.951172	39574.351563
505.369141	39634.132813
504.785156	40040.855469
504.201172	39822.179688
503.617188	39899.039063
503.033203	39414.953125
502.449219	39316.300781
501.865234	39804.156250
501.281250	39735.445313
500.697266	39850.785156
500.113281	39396.925781
499.529297	39255.535156
498.945313	39447.898438
498.359375	39755.726563
497.775391	39195.140625
497.191406	39626.957031
496.607422	39489.890625
496.021484	39776.187500
495.437500	39968.355469
494.853516	40036.500000
494.267578	39484.804688
493.683594	40065.886719
493.097656	39112.585938
492.513672	39578.199219
491.927734	39676.250000
491.341797	39834.089844
490.757813	39885.101563
490.171875	39372.292969
489.585938	39508.757813
489.001953	39974.000000
488.416016	39952.378906
487.830078	39678.875000
487.244141	39845.117188
486.658203	39866.199219
486.072266	40023.843750
485.486328	39848.597656
484.900391	39182.703125
484.314453	40142.449219
483.728516	40078.160156
483.142578	40158.910156
482.556641	39911.238281
481.970703	39838.464844
481.384766	39995.960938
480.798828	40055.359375
480.210938	40460.046875
479.625000	40681.351563
479.039063	39930.867188
478.451172	39990.242188
477.865234	39785.414063
477.279297	40181.375000
476.691406	40398.320313
476.105469	40351.117188
475.517578	39980.234375
474.929688	39613.695313
474.343750	40179.765625
473.755859	40864.921875
473.169922	40260.000000
472.582031	40097.910156
471.994141	40029.492188
471.406250	39905.765625
470.820313	40016.097656
470.232422	39930.691406
469.644531	40104.808594
469.056641	40125.753906
468.468750	39657.562500
467.880859	39971.992188
467.292969	39827.097656
466.705078	39524.917969
466.117188	39554.414063
465.529297	39664.664063
464.941406	39290.347656
464.351563	39311.355469
463.763672	39468.335938
463.175781	38987.941406
462.587891	38711.585938
461.998047	39004.511719
461.410156	39106.234375
460.822266	39042.300781
460.232422	38647.152344
459.644531	39105.542969
459.054688	39088.328125
458.466797	38744.250000
457.876953	38892.613281
457.287109	38951.820313
456.699219	38756.394531
456.109375	39320.527344
455.519531	38853.578125
454.931641	38666.714844
454.341797	39192.480469
453.751953	39026.824219
453.162109	38589.804688
452.572266	38712.582031
451.984375	38585.187500
451.394531	39267.507813
450.804688	39135.839844
450.214844	39334.781250
449.625000	38766.652344
449.033203	38342.714844
448.443359	38427.281250
447.853516	38838.023438
447.263672	38291.382813
446.673828	38426.746094
446.082031	38706.062500
445.492188	38358.636719
444.902344	38074.792969
444.312500	38430.250000
443.720703	38214.187500
443.130859	38396.019531
442.539063	38827.484375
441.949219	38992.273438
441.357422	39707.042969
440.767578	38818.316406
440.175781	39236.843750
439.583984	39634.121094
438.994141	39384.281250
438.402344	40166.242188
437.810547	40922.652344
437.218750	41213.863281
436.628906	41475.417969
436.037109	41622.792969
435.445313	42404.039063
434.853516	42956.925781
434.261719	43518.132813
433.669922	43470.871094
433.078125	44205.074219
432.486328	44406.933594
431.894531	44667.867188
431.302734	45308.777344
430.710938	44780.003906
430.117188	44052.933594
429.525391	44271.570313
428.933594	43261.941406
428.341797	41872.722656
427.748047	42340.496094
427.156250	41052.964844
426.562500	40930.097656
425.970703	40292.636719
425.378906	39950.558594
424.785156	39051.882813
424.191406	39334.109375
423.599609	38954.316406
423.005859	38224.695313
422.414063	38439.468750
421.820313	37697.429688
421.226563	37044.062500
420.632813	37385.312500
420.041016	37027.066406
419.447266	36449.828125
418.853516	36357.152344
418.259766	36715.167969
417.666016	35872.847656
417.072266	35350.750000
416.478516	35552.968750
415.884766	35687.777344
415.291016	35898.328125
414.697266	35793.152344
414.103516	35582.789063
413.509766	35810.109375
412.914063	35372.582031
412.320313	34611.218750
411.726563	35566.296875
411.130859	34758.816406
410.537109	34704.320313
409.943359	34902.140625
409.347656	34835.023438
408.753906	34864.613281
408.158203	35222.078125
407.564453	34545.492188
406.968750	34869.289063
406.375000	34764.390625
405.779297	34823.378906
405.183594	35193.238281
404.589844	34701.871094
403.994141	34706.242188
403.398438	34496.425781
402.802734	35155.894531
402.207031	34803.316406
401.613281	34925.218750
401.017578	34946.343750
400.421875	35089.187500
399.826172	34770.347656
399.230469	35282.449219
398.634766	35186.039063
398.037109	35307.808594
397.441406	35274.335938
396.845703	35580.613281
396.250000	35614.218750
395.654297	35974.898438
395.056641	35723.328125
394.460938	35752.710938
393.865234	36130.011719
393.267578	35983.296875
392.671875	36750.238281
392.074219	36758.527344
391.478516	36628.546875
390.880859	36972.003906
390.285156	37499.699219
389.687500	37424.125000
389.091797	37633.347656
388.494141	38093.777344
387.896484	37653.886719
387.300781	38788.230469
386.703125	38067.894531
386.105469	38837.785156
385.507813	38942.066406
384.910156	38849.644531
384.312500	39430.886719
383.714844	39476.488281
383.117188	40304.320313
382.519531	40617.496094
381.921875	40713.128906
381.324219	41055.453125
380.726563	42171.210938
380.128906	41856.914063
379.531250	42378.730469
378.931641	42804.289063
378.333984	42891.230469
377.736328	43985.222656
377.136719	43980.082031
376.539063	44004.187500
375.941406	45076.777344
375.341797	45029.738281
374.744141	45746.968750
374.144531	46814.800781
373.546875	46183.031250
372.947266	46933.269531
372.347656	49060.859375
371.750000	47982.445313
371.150391	48114.550781
370.550781	48893.417969
369.951172	49655.414063
369.353516	49265.789063
368.753906	50332.070313
368.154297	49579.585938
367.554688	50687.281250
366.955078	50051.687500
366.355469	50179.246094
365.755859	50498.546875
365.156250	49796.500000
364.556641	50282.488281
363.957031	49538.949219
363.355469	48603.902344
362.755859	50127.316406
362.156250	48605.007813
361.556641	48803.421875
360.955078	48822.691406
360.355469	47709.191406
359.755859	48107.511719
359.154297	47248.335938
358.554688	47280.261719
357.953125	46571.234375
357.353516	46470.042969
356.751953	46115.011719
356.152344	46246.917969
355.550781	45792.140625
354.949219	46032.214844
354.349609	45764.753906
353.748047	45975.656250
353.146484	45250.804688
352.544922	46164.457031
351.943359	45685.054688
351.341797	46423.832031
350.740234	46942.128906
350.140625	46300.707031
349.539063	47537.843750
348.935547	48051.667969
348.333984	48544.593750
347.732422	48700.906250
347.130859	48990.105469
346.529297	49532.585938
345.927734	50726.933594
345.324219	51680.160156
344.722656	52869.820313
344.121094	53781.054688
343.517578	54538.492188
342.916016	56196.386719
342.314453	57306.101563
341.710938	59307.679688
341.109375	62059.742188
340.505859	63778.195313
339.902344	67366.968750
339.300781	69673.328125
338.697266	74363.656250
338.095703	77062.554688
337.492188	82741.804688
336.888672	87876.648438
336.285156	93855.859375
335.681641	101682.132813
335.078125	110492.843750
334.476563	118766.953125
333.873047	127668.859375
333.269531	139265.500000
332.666016	144227.890625
332.062500	151342.750000
331.457031	154492.875000
330.853516	152387.781250
330.250000	152767.281250
329.646484	149064.968750
329.042969	144005.890625
328.437500	139217.015625
327.833984	134520.296875
327.230469	130888.078125
326.625000	127463.578125
326.021484	122099.750000
325.417969	121390.460938
324.812500	119254.500000
324.207031	117085.953125
323.603516	117254.070313
322.998047	113974.148438
322.394531	115068.554688
321.789063	113802.585938
321.183594	112921.257813
320.580078	111974.023438
319.974609	110638.609375
319.369141	106737.937500
318.763672	108460.304688
318.158203	103639.726563
317.552734	102508.281250
316.947266	102046.070313
316.341797	98846.492188
315.736328	97860.507813
315.130859	97766.390625
314.525391	94300.156250
313.919922	92935.367188
313.314453	92160.984375
312.707031	91403.289063
312.101563	93088.078125
311.496094	90655.687500
310.890625	90814.078125
310.283203	92774.640625
309.677734	90718.390625
309.070313	93329.945313
308.464844	93384.875000
307.857422	93662.382813
307.251953	96491.101563
306.644531	97588.273438
306.037109	97259.445313
305.431641	100490.507813
304.824219	101986.421875
304.216797	104993.710938
303.611328	109157.648438
303.003906	109334.171875
302.396484	115678.992188
301.789063	117336.906250
301.181641	120031.843750
300.574219	127142.875000
299.966797	131383.546875
299.359375	134796.015625
298.751953	142738.078125
298.144531	145247.375000
297.537109	152454.062500
296.929688	160893.031250
296.320313	162749.437500
295.712891	172131.031250
295.105469	176859.875000
294.498047	183754.281250
293.888672	193426.031250
293.281250	198454.828125
292.671875	205845.640625
292.064453	215001.750000
291.455078	221390.375000
290.847656	235567.125000
290.238281	245406.593750
289.630859	255026.031250
289.021484	274343.937500
288.412109	286684.406250
287.802734	304232.468750
287.195313	331178.093750
286.585938	344841.562500
285.976563	377350.000000
285.367188	403932.625000
284.757813	431744.125000
284.148438	469876.593750
283.539063	509735.406250
282.929688	551931.187500
282.320313	607197.187500
281.710938	642912.062500
281.101563	702324.500000
280.492188	758286.937500
279.882813	800817.687500
279.271484	866863.812500
278.662109	916925.625000
278.052734	961012.562500
277.441406	1004388.312500
276.832031	1022133.437500
276.220703	1050427.625000
275.611328	1057144.000000
275.000000	1055425.375000
274.390625	1057282.375000
273.779297	1033497.000000
273.169922	1019617.375000
272.558594	996558.500000
271.947266	974855.812500
271.337891	962334.625000
270.726563	935271.875000
270.115234	923372.062500
269.503906	909654.437500
268.892578	895129.937500
268.281250	897604.937500
267.669922	897670.250000
267.058594	891433.625000
266.447266	910129.312500
265.835938	901455.875000
265.224609	928109.437500
264.613281	947775.125000
264.001953	945676.375000
263.390625	984591.375000
262.777344	997942.500000
262.166016	1016863.250000
261.554688	1059334.500000
260.941406	1072063.375000
260.330078	1112765.750000
259.718750	1159241.125000
259.105469	1166906.750000
258.494141	1224404.250000
257.880859	1260599.250000
257.267578	1269654.125000
256.656250	1332800.125000
256.042969	1328610.250000
255.429688	1353848.625000
254.818359	1388733.750000
254.205078	1364146.000000
253.591797	1398642.250000
252.978516	1387680.875000
252.365234	1352523.875000
251.751953	1376147.000000
251.138672	1330734.000000
250.525391	1311054.000000
249.912109	1299555.125000
249.298828	1240245.500000
248.685547	1237107.250000
248.072266	1200143.250000
247.458984	1144973.000000
246.845703	1141338.125000
246.230469	1079141.500000
245.617188	1040662.000000
245.003906	1018097.250000
244.388672	957969.062500
243.775391	933123.375000
243.162109	901477.375000
242.546875	850599.250000
241.933594	835953.312500
241.318359	800350.437500
240.703125	767864.437500
240.089844	762350.437500
239.474609	727549.937500
238.859375	717848.625000
238.246094	700459.312500
237.630859	670375.062500
237.015625	666315.125000
236.400391	634156.500000
235.785156	610647.437500
235.169922	596081.437500
234.554688	564820.375000
233.939453	544517.625000
233.324219	526312.062500
232.708984	496695.343750
232.093750	487135.531250
231.478516	464049.156250
230.863281	444050.562500
230.248047	434524.718750
229.630859	415378.812500
229.015625	404604.218750
228.400391	389192.656250
227.783203	374076.937500
227.167969	359910.375000
226.550781	346400.406250
225.935547	333441.375000
225.318359	323880.843750
224.703125	311357.500000
224.085938	302316.937500
223.470703	291794.281250
222.853516	283451.500000
222.236328	274470.156250
221.619141	266423.281250
221.003906	258686.375000
220.386719	250165.046875
219.769531	244231.140625
219.152344	236844.000000
218.535156	230730.765625
217.917969	224246.281250
217.300781	218160.281250
216.683594	216259.312500
216.066406	210378.171875
215.449219	203263.468750
214.832031	202045.093750
214.212891	194265.125000
213.595703	188931.734375
212.978516	188528.953125
212.361328	179733.609375
211.742188	175706.671875
211.125000	171417.734375
210.505859	164795.734375
209.888672	161981.359375
209.271484	155362.046875
208.652344	148748.359375
208.033203	148063.609375
207.416016	140049.500000
206.796875	137377.156250
206.177734	132534.984375
205.560547	126243.109375
204.941406	124882.578125
204.322266	122241.562500
203.703125	119980.921875
203.083984	120459.539063
202.466797	113671.984375
201.847656	114486.429688
201.228516	112647.726563
200.609375	109937.351563
199.988281	111014.351563
199.369141	109778.148438
198.750000	109163.804688
198.130859	111205.023438
197.511719	109166.242188
196.892578	109552.773438
196.271484	109931.148438
195.652344	107247.851563
195.033203	108312.046875
194.412109	106916.023438
193.792969	104790.492188
193.171875	104580.554688
192.552734	102181.671875
191.931641	100351.695313
191.312500	100372.093750
190.691406	96302.148438
190.070313	95940.218750
189.451172	92862.875000
188.830078	92783.429688
188.208984	91261.992188
187.587891	90034.914063
186.966797	89915.562500
186.347656	89208.359375
185.726563	86065.546875
185.105469	86880.640625
184.484375	84499.593750
183.863281	81829.328125
183.242188	81521.890625
182.619141	78820.421875
181.998047	77990.390625
181.376953	76191.062500
180.755859	74878.867188
180.134766	73896.765625
179.511719	71965.859375
178.890625	71507.039063
178.269531	72133.835938
177.646484	70951.523438
177.025391	69246.960938
176.402344	70010.453125
175.781250	68575.640625
175.158203	68824.718750
174.537109	68230.054688
173.914063	67659.632813
173.291016	66780.070313
172.669922	68740.117188
172.046875	68085.507813
171.423828	67519.390625
170.800781	67314.726563
170.177734	67832.671875
169.554688	68563.234375
168.931641	68210.023438
168.308594	68105.695313
167.685547	69758.804688
167.062500	68912.125000
166.439453	69541.843750
165.816406	69778.335938
165.193359	69778.164063
164.570313	71610.554688
163.947266	72015.125000
163.322266	73057.046875
162.699219	75654.046875
162.076172	75569.015625
161.451172	78185.148438
160.828125	79462.281250
160.203125	81255.968750
159.580078	84964.226563
158.955078	87345.695313
158.332031	92510.296875
157.707031	96692.500000
157.082031	102243.210938
156.458984	109206.000000
155.833984	114922.085938
155.208984	124871.960938
154.583984	132954.343750
153.960938	136604.609375
153.335938	144339.593750
152.710938	144410.718750
152.085938	142717.546875
151.460938	139780.750000
150.835938	131861.046875
150.210938	125650.851563
149.585938	120117.898438
148.960938	112910.968750
148.333984	109419.679688
147.708984	105265.648438
147.083984	99569.804688
146.458984	96265.140625
145.832031	92473.742188
145.207031	88683.226563
144.582031	86479.617188
143.955078	81959.695313
143.330078	80592.140625
142.703125	77747.281250
142.078125	74248.210938
141.451172	73472.953125
140.824219	72071.101563
140.199219	70334.273438
139.572266	68645.750000
138.945313	65943.953125
138.318359	66746.296875
137.693359	64284.750000
137.066406	64073.796875
136.439453	64369.488281
135.812500	64034.933594
135.185547	64486.093750
134.558594	65292.042969
133.931641	64506.960938
133.304688	64674.863281
132.677734	64858.667969
132.050781	64898.949219
131.421875	65887.703125
130.794922	64246.289063
130.167969	65091.457031
129.541016	65263.164063
128.912109	65422.878906
128.285156	66490.656250
127.658203	66964.812500
127.029297	67008.796875
126.402344	68000.375000
125.773438	68653.335938
125.146484	69612.648438
124.517578	68792.625000
123.888672	70758.562500
123.261719	71124.398438
122.632813	72735.500000
122.003906	71088.015625
121.375000	72877.750000
120.748047	72821.578125
120.119141	72284.210938
119.490234	72399.109375
118.861328	72716.750000
118.232422	71400.382813
117.603516	71932.726563
116.974609	72556.367188
116.345703	70930.500000
115.716797	71883.921875
115.087891	71502.132813
114.457031	71545.507813
113.828125	70369.382813
113.199219	70861.703125
112.570313	70881.320313
111.939453	70301.320313
111.310547	69665.867188
110.679688	71162.460938
110.050781	71031.195313
109.419922	71455.632813
108.791016	71439.453125
108.160156	72232.789063
107.531250	71823.718750
106.900391	72660.468750
106.269531	71938.078125
105.640625	72580.273438
105.009766	73051.789063
104.378906	72337.531250
103.748047	71801.859375
103.117188	71603.304688
102.488281	71468.218750
101.857422	72014.906250
101.226563	71531.046875
100.595703	69105.578125
99.964844	69668.203125
99.333984	69620.585938
98.701172	69157.039063
98.070313	68737.171875
97.439453	68040.164063
96.808594	67137.406250
96.177734	66472.429688
95.544922	64976.199219
94.914063	63884.089844
94.283203	62764.527344
93.650391	62294.289063
93.019531	61373.031250
92.386719	61290.824219
91.755859	59827.875000
91.123047	59294.898438
90.490234	58394.187500
89.859375	58296.546875
89.226563	56909.750000
88.593750	57144.445313
87.962891	55339.015625
87.330078	54016.289063
86.697266	53606.941406
86.064453	52573.234375
85.431641	52828.058594
84.798828	51616.863281
84.166016	51836.179688
83.533203	50234.281250
82.900391	50145.609375
82.267578	49796.285156
81.634766	48965.246094
81.001953	47929.070313
80.369141	47437.984375
79.734375	47365.476563
79.101563	47304.828125
78.468750	46612.695313
77.835938	46102.257813
77.201172	45284.148438
76.568359	45476.285156
75.933594	45538.187500
75.300781	44661.257813
74.666016	44533.921875
74.033203	43590.261719
73.398438	42970.164063
72.765625	43714.441406
72.130859	42648.980469
71.496094	42537.718750
70.861328	41417.457031
70.228516	41850.230469
69.593750	40990.382813
68.958984	40477.464844
68.324219	40145.894531
67.689453	38932.000000
67.054688	39014.257813
66.419922	38489.984375
65.785156	37587.789063
65.150391	37351.234375
64.515625	36890.324219
63.880859	36642.097656
63.246094	36279.777344
62.609375	35893.925781
61.974609	34996.574219
61.339844	35476.621094
60.703125	35012.304688
60.068359	34681.851563
59.433594	33930.582031
58.796875	33415.468750
58.162109	34064.535156
57.525391	32637.255859
56.890625	32661.117188
56.253906	32508.064453
55.617188	31561.007813
54.982422	31447.419922
54.345703	30921.207031
53.708984	30135.763672
53.074219	29794.486328
52.437500	29025.060547
51.800781	28660.417969
51.164063	27353.185547
50.527344	27149.833984
49.890625	26581.324219
49.253906	25914.781250
48.617188	25774.478516
47.980469	25127.804688
47.343750	24626.505859
46.707031	24290.158203
46.070313	24311.000000
45.431641	24131.718750
44.794922	23976.019531
44.158203	24040.042969
43.521484	23880.466797
42.882813	23701.318359
42.246094	23745.744141
41.607422	23696.052734
40.970703	23732.630859
40.332031	23608.466797
39.695313	23672.486328
39.056641	23603.232422
38.419922	23671.160156
37.781250	23605.839844
37.142578	23622.818359
36.505859	23447.822266
35.867188	23543.164063
35.228516	23681.568359
34.589844	23604.539063
33.951172	23390.466797
33.314453	23517.101563
32.675781	23553.658203
32.037109	23656.757813
